File: examples/example6/copper13.uxd
; (content of file: C:\Users\usmial\AppData\Local\Microsoft\Windows\INetCache\Content.Outlook\85Y1ATVD\Poudre Cu et etalon inco 01-06-21.stx, Point: Poudre Cu)
_FILEVERSION = 2
_SAMPLE = Poudre Cu et etalon inco 01-06-21
_+SAMPLE = "Poudre Cu et etalon inco 01-06-21, Poudre Cu"
_SITE =
_USER =
_GONIOMETER_CODE = 9999
; Goniometer: StressDiff, stage: Unknown
_GONIOMETER_RADIUS = 130.000
_ATTACHMENTS_CODE = 0
_BETA_FILTER = Y
_WL_UNIT = A
_WL1 = 2.10187
_WL2 = 2.10583
_WLRATIO = 0.500
_ANODE = Mn

; Data for Point: Poudre Cu, Direction: Direction 13
_DRIVE = 2THETA
_STEPTIME = 60.00
_STEPSIZE = 0.0220
_STEPMODE = S
_START = 137.894
_THETA = 76.000
_2THETA = 137.894
_KHI = 39.232
_PHI = 90.000
_X = -94.693
_Y = -392.395
_Z = -42.780
_VARDIVERGENCE = Unkn
_VARANTISCATTER = 9999
_DETECTOR = 0
; Detector type : Unknown
_DETECTORSLIT = out
_AUX1 = 0
_AUX2 = 0
_AUX3 = 0
_TEMP_RATE = -1
_TEMP_DELAY = -1
_KV = 20.00
_MA = 1.00
_RANGE_WL = 2.10187
_3DPLANE = 0
_V4_COUNTERS_MASK = 4096
_V4_DRIVES_MASK = 0
_V4_ENCODERS_MASK = 0
_COUNTS = 1
; PSD
      351
      352
      308
      290
      335
      328
      307
      312
      370
      347
      321
      345
      319
      310
      327
      348
      306
      300
      320
      335
      324
      323
      357
      397
      330
      340
      356
      361
      365
      355
      337
      377
      344
      353
      322
      340
      306
      298
      333
      356
      314
      323
      328
      347
      337
      338
      333
      316
      340
      319
      334
      354
      338
      364
      350
      349
      342
      339
      334
      389
      351
      397
      342
      362
      414
      348
      373
      373
      344
      326
      331
      422
      358
      399
      402
      385
      371
      427
      396
      378
      430
      408
      420
      372
      454
      388
      437
      452
      421
      473
      532
      459
      474
      509
      595
      624
      710
      814
      901
     1049
     1162
     1111
     1105
     1173
     1158
     1301
     1160
     1066
     1034
      986
      846
      755
      720
      650
      620
      609
      557
      550
      508
      510
      456
      452
      429
      418
      413
      415
      403
      407
      435
      398
      389
      424
      443
      401
      412
      398
      399
      434
      406
      391
      395
      400
      362
      370
      422
      411
      411
      371
      378
      382
      367
      365
      403
      407
      377
      420
      422
      373
      415
      388
      405
      407
      425
      409
      395
      373
      444
      395
      404
      414
      405
      415
      395
      393
      387
      427
      418
      412
      384
      407
      378
      418
      421
      446
      397
      458
      395
      410
      419
      388
      411
      411
      410
      377
      406
      404
      387
      415
      417
      413
      395
      418
      436
      428
      388
      468
      459
      399
      409
      408
      461
      403
      433
      425
      391
      381
      428
      418
      452
      460
      438
      397
      405
      403
      407
      407
      442
      413
      435
      400
      372
      440
      397
      371
      445
      431
      393
      434
      428
      332
      379
      423
      387
      407
      396
      410
      383
      393
      403
      448
      395
      406
      408
      391
      383
      424
      464