File: examples/example6/copper9.uxd
; (content of file: C:\Users\usmial\AppData\Local\Microsoft\Windows\INetCache\Content.Outlook\85Y1ATVD\Poudre Cu et etalon inco 01-06-21.stx, Point: Poudre Cu)
_FILEVERSION = 2
_SAMPLE = Poudre Cu et etalon inco 01-06-21
_+SAMPLE = "Poudre Cu et etalon inco 01-06-21, Poudre Cu"
_SITE =
_USER =
_GONIOMETER_CODE = 9999
; Goniometer: StressDiff, stage: Unknown
_GONIOMETER_RADIUS = 130.000
_ATTACHMENTS_CODE = 0
_BETA_FILTER = Y
_WL_UNIT = A
_WL1 = 2.10187
_WL2 = 2.10583
_WLRATIO = 0.500
_ANODE = Mn

; Data for Point: Poudre Cu, Direction: Direction 9
_DRIVE = 2THETA
_STEPTIME = 60.00
_STEPSIZE = 0.0220
_STEPMODE = S
_START = 137.894
_THETA = 76.000
_2THETA = 137.894
_KHI = 21.417
_PHI = 90.000
_X = -94.693
_Y = -392.395
_Z = -42.780
_VARDIVERGENCE = Unkn
_VARANTISCATTER = 9999
_DETECTOR = 0
; Detector type : Unknown
_DETECTORSLIT = out
_AUX1 = 0
_AUX2 = 0
_AUX3 = 0
_TEMP_RATE = -1
_TEMP_DELAY = -1
_KV = 20.00
_MA = 1.00
_RANGE_WL = 2.10187
_3DPLANE = 0
_V4_COUNTERS_MASK = 4096
_V4_DRIVES_MASK = 0
_V4_ENCODERS_MASK = 0
_COUNTS = 1
; PSD
      344
      357
      306
      333
      342
      348
      343
      338
      323
      328
      340
      314
      322
      373
      326
      317
      350
      300
      372
      325
      343
      334
      356
      345
      353
      327
      325
      338
      397
      357
      302
      357
      381
      374
      324
      357
      337
      355
      334
      340
      349
      324
      345
      317
      344
      337
      368
      332
      365
      331
      353
      374
      302
      339
      359
      343
      349
      377
      325
      356
      390
      364
      353
      369
      357
      367
      340
      367
      355
      371
      364
      346
      363
      387
      360
      377
      366
      352
      404
      386
      418
      424
      428
      401
      398
      414
      416
      429
      433
      455
      472
      507
      507
      509
      563
      615
      638
      737
      834
     1121
     1148
     1196
     1219
     1262
     1199
     1266
     1070
     1092
     1069
      977
      909
      851
      779
      700
      587
      608
      539
      537
      496
      437
      457
      498
      441
      448
      451
      434
      427
      408
      426
      420
      364
      372
      401
      375
      412
      381
      393
      437
      432
      421
      394
      389
      365
      381
      383
      401
      393
      386
      381
      375
      402
      372
      383
      375
      388
      396
      400
      412
      406
      389
      396
      430
      421
      412
      379
      378
      413
      394
      422
      389
      404
      413
      434
      415
      383
      443
      366
      430
      390
      425
      438
      437
      385
      415
      418
      415
      432
      439
      397
      403
      401
      418
      369
      409
      395
      405
      411
      383
      433
      384
      411
      391
      417
      388
      389
      398
      465
      432
      413
      391
      449
      413
      430
      448
      424
      386
      421
      382
      424
      447
      430
      406
      427
      393
      415
      383
      419
      411
      406
      417
      398
      454
      422
      422
      457
      411
      398
      424
      412
      378
      418
      360
      391
      403
      424
      399
      448
      422
      409
      489
      379
      443
      366
      406
      397
      403
      440