File: examples/example6/copper4.uxd
; (content of file: C:\Users\usmial\AppData\Local\Microsoft\Windows\INetCache\Content.Outlook\85Y1ATVD\Poudre Cu et etalon inco 01-06-21.stx, Point: Poudre Cu)
_FILEVERSION = 2
_SAMPLE = Poudre Cu et etalon inco 01-06-21
_+SAMPLE = "Poudre Cu et etalon inco 01-06-21, Poudre Cu"
_SITE =
_USER =
_GONIOMETER_CODE = 9999
; Goniometer: StressDiff, stage: Unknown
_GONIOMETER_RADIUS = 130.000
_ATTACHMENTS_CODE = 0
_BETA_FILTER = Y
_WL_UNIT = A
_WL1 = 2.10187
_WL2 = 2.10583
_WLRATIO = 0.500
_ANODE = Mn

; Data for Point: Poudre Cu, Direction: Direction 4
_DRIVE = 2THETA
_STEPTIME = 60.00
_STEPSIZE = 0.0220
_STEPMODE = S
_START = 137.894
_THETA = 76.000
_2THETA = 137.894
_KHI = -24.095
_PHI = 90.000
_X = -94.693
_Y = -392.395
_Z = -42.780
_VARDIVERGENCE = Unkn
_VARANTISCATTER = 9999
_DETECTOR = 0
; Detector type : Unknown
_DETECTORSLIT = out
_AUX1 = 0
_AUX2 = 0
_AUX3 = 0
_TEMP_RATE = -1
_TEMP_DELAY = -1
_KV = 20.00
_MA = 1.00
_RANGE_WL = 2.10187
_3DPLANE = 0
_V4_COUNTERS_MASK = 4096
_V4_DRIVES_MASK = 0
_V4_ENCODERS_MASK = 0
_COUNTS = 1
; PSD
      352
      298
      314
      318
      324
      313
      315
      327
      329
      337
      334
      353
      340
      356
      376
      298
      339
      304
      342
      336
      337
      329
      331
      315
      314
      339
      319
      363
      362
      359
      344
      348
      385
      348
      325
      343
      348
      318
      326
      329
      366
      313
      341
      348
      329
      316
      359
      351
      365
      375
      310
      340
      322
      337
      362
      349
      333
      352
      359
      381
      342
      345
      354
      364
      380
      362
      385
      365
      357
      382
      349
      388
      350
      412
      366
      357
      355
      354
      428
      418
      430
      423
      375
      370
      452
      444
      420
      434
      426
      458
      500
      470
      497
      528
      612
      643
      661
      794
      862
     1051
     1275
     1229
     1197
     1238
     1118
     1276
     1049
     1050
     1063
      967
      901
      871
      716
      669
      572
      573
      555
      479
      498
      476
      412
      415
      451
      470
      424
      424
      404
      401
      469
      410
      421
      423
      420
      359
      393
      418
      433
      431
      402
      410
      372
      380
      392
      399
      414
      438
      368
      348
      412
      378
      386
      407
      372
      430
      379
      409
      371
      409
      419
      412
      417
      401
      399
      400
      417
      401
      451
      378
      368
      405
      383
      398
      391
      389
      399
      455
      390
      370
      407
      336
      413
      417
      454
      428
      421
      424
      455
      430
      405
      429
      377
      374
      395
      378
      407
      411
      394
      417
      377
      370
      439
      427
      371
      412
      398
      433
      440
      416
      416
      419
      437
      443
      417
      418
      380
      408
      441
      405
      416
      432
      413
      447
      394
      448
      422
      344
      422
      384
      394
      404
      382
      405
      392
      442
      406
      401
      404
      422
      428
      393
      414
      398
      399
      440
      411
      387
      408
      440
      391
      413
      421
      396
      421
      386
      393
      399
      452