File: examples/example6/copper3.uxd
; (content of file: C:\Users\usmial\AppData\Local\Microsoft\Windows\INetCache\Content.Outlook\85Y1ATVD\Poudre Cu et etalon inco 01-06-21.stx, Point: Poudre Cu)
_FILEVERSION = 2
_SAMPLE = Poudre Cu et etalon inco 01-06-21
_+SAMPLE = "Poudre Cu et etalon inco 01-06-21, Poudre Cu"
_SITE =
_USER =
_GONIOMETER_CODE = 9999
; Goniometer: StressDiff, stage: Unknown
_GONIOMETER_RADIUS = 130.000
_ATTACHMENTS_CODE = 0
_BETA_FILTER = Y
_WL_UNIT = A
_WL1 = 2.10187
_WL2 = 2.10583
_WLRATIO = 0.500
_ANODE = Mn

; Data for Point: Poudre Cu, Direction: Direction 3
_DRIVE = 2THETA
_STEPTIME = 60.00
_STEPSIZE = 0.0220
_STEPMODE = S
_START = 137.894
_THETA = 76.000
_2THETA = 137.894
_KHI = -28.885
_PHI = 90.000
_X = -94.693
_Y = -392.395
_Z = -42.780
_VARDIVERGENCE = Unkn
_VARANTISCATTER = 9999
_DETECTOR = 0
; Detector type : Unknown
_DETECTORSLIT = out
_AUX1 = 0
_AUX2 = 0
_AUX3 = 0
_TEMP_RATE = -1
_TEMP_DELAY = -1
_KV = 20.00
_MA = 1.00
_RANGE_WL = 2.10187
_3DPLANE = 0
_V4_COUNTERS_MASK = 4096
_V4_DRIVES_MASK = 0
_V4_ENCODERS_MASK = 0
_COUNTS = 1
; PSD
      346
      354
      329
      343
      291
      285
      331
      344
      328
      322
      353
      323
      350
      306
      324
      324
      352
      343
      372
      341
      303
      343
      320
      355
      326
      362
      341
      339
      366
      364
      328
      324
      329
      349
      380
      331
      345
      325
      323
      309
      337
      313
      333
      302
      313
      317
      334
      334
      335
      332
      335
      340
      337
      330
      376
      335
      324
      346
      369
      371
      379
      353
      357
      382
      416
      393
      347
      351
      387
      357
      370
      348
      348
      397
      397
      356
      368
      366
      400
      354
      383
      416
      427
      426
      423
      417
      371
      453
      417
      481
      483
      488
      500
      529
      615
      593
      645
      816
      841
      992
     1178
     1208
     1160
     1217
     1167
     1282
     1084
     1101
     1093
      992
      878
      838
      757
      672
      634
      607
      560
      506
      481
      518
      422
      472
      467
      398
      407
      421
      425
      434
      412
      408
      422
      401
      389
      439
      389
      417
      390
      430
      365
      375
      401
      383
      389
      378
      417
      421
      370
      394
      383
      353
      404
      436
      407
      370
      416
      390
      405
      396
      427
      408
      403
      426
      410
      405
      415
      406
      410
      403
      407
      445
      407
      417
      400
      371
      396
      406
      385
      403
      407
      363
      374
      444
      449
      411
      399
      392
      419
      409
      391
      412
      428
      370
      423
      437
      406
      388
      403
      388
      412
      388
      405
      375
      387
      436
      384
      401
      423
      409
      383
      420
      432
      407
      413
      460
      449
      402
      406
      401
      399
      400
      408
      429
      383
      422
      416
      412
      398
      407
      399
      432
      404
      397
      403
      409
      428
      386
      391
      406
      400
      394
      398
      392
      385
      376
      399
      437
      459
      401
      457
      397
      386
      444
      378
      403
      434
      417
      473