File: examples/example6/copper6.uxd
; (content of file: C:\Users\usmial\AppData\Local\Microsoft\Windows\INetCache\Content.Outlook\85Y1ATVD\Poudre Cu et etalon inco 01-06-21.stx, Point: Poudre Cu)
_FILEVERSION = 2
_SAMPLE = Poudre Cu et etalon inco 01-06-21
_+SAMPLE = "Poudre Cu et etalon inco 01-06-21, Poudre Cu"
_SITE =
_USER =
_GONIOMETER_CODE = 9999
; Goniometer: StressDiff, stage: Unknown
_GONIOMETER_RADIUS = 130.000
_ATTACHMENTS_CODE = 0
_BETA_FILTER = Y
_WL_UNIT = A
_WL1 = 2.10187
_WL2 = 2.10583
_WLRATIO = 0.500
_ANODE = Mn

; Data for Point: Poudre Cu, Direction: Direction 6
_DRIVE = 2THETA
_STEPTIME = 60.00
_STEPSIZE = 0.0220
_STEPMODE = S
_START = 137.894
_THETA = 76.000
_2THETA = 137.894
_KHI = -10.520
_PHI = 90.000
_X = -94.693
_Y = -392.395
_Z = -42.780
_VARDIVERGENCE = Unkn
_VARANTISCATTER = 9999
_DETECTOR = 0
; Detector type : Unknown
_DETECTORSLIT = out
_AUX1 = 0
_AUX2 = 0
_AUX3 = 0
_TEMP_RATE = -1
_TEMP_DELAY = -1
_KV = 20.00
_MA = 1.00
_RANGE_WL = 2.10187
_3DPLANE = 0
_V4_COUNTERS_MASK = 4096
_V4_DRIVES_MASK = 0
_V4_ENCODERS_MASK = 0
_COUNTS = 1
; PSD
      350
      327
      351
      282
      297
      324
      341
      336
      340
      397
      329
      323
      302
      330
      298
      341
      307
      325
      331
      343
      298
      330
      341
      337
      317
      360
      385
      361
      361
      351
      302
      337
      350
      323
      331
      313
      342
      363
      356
      340
      352
      322
      348
      343
      357
      299
      342
      333
      351
      326
      322
      331
      309
      338
      352
      352
      342
      382
      360
      333
      365
      376
      342
      366
      379
      369
      340
      345
      360
      322
      357
      372
      370
      342
      370
      387
      402
      411
      410
      388
      382
      421
      398
      381
      414
      438
      430
      447
      464
      487
      482
      435
      459
      479
      614
      633
      665
      778
      877
     1072
     1225
     1391
     1281
     1273
     1117
     1315
     1083
     1073
     1058
     1034
      886
      841
      773
      667
      585
      572
      504
      513
      475
      459
      455
      450
      414
      457
      426
      420
      446
      446
      445
      423
      406
      420
      428
      387
      442
      371
      380
      427
      394
      398
      394
      351
      351
      384
      396
      423
      405
      431
      361
      364
      370
      376
      406
      384
      407
      428
      400
      376
      406
      427
      384
      423
      406
      446
      409
      372
      447
      367
      387
      398
      445
      418
      399
      379
      383
      390
      375
      419
      392
      346
      369
      388
      410
      434
      391
      398
      383
      437
      395
      420
      388
      408
      421
      382
      413
      410
      413
      423
      373
      416
      451
      408
      387
      418
      366
      453
      425
      427
      448
      419
      420
      449
      394
      401
      394
      374
      412
      425
      434
      373
      419
      447
      402
      406
      404
      409
      427
      378
      391
      392
      384
      451
      386
      401
      405
      391
      417
      415
      407
      415
      379
      369
      448
      396
      418
      424
      381
      413
      437
      441
      400
      403
      378
      420
      409
      408
      454