File: examples/example6/copper12.uxd
; (content of file: C:\Users\usmial\AppData\Local\Microsoft\Windows\INetCache\Content.Outlook\85Y1ATVD\Poudre Cu et etalon inco 01-06-21.stx, Point: Poudre Cu)
_FILEVERSION = 2
_SAMPLE = Poudre Cu et etalon inco 01-06-21
_+SAMPLE = "Poudre Cu et etalon inco 01-06-21, Poudre Cu"
_SITE =
_USER =
_GONIOMETER_CODE = 9999
; Goniometer: StressDiff, stage: Unknown
_GONIOMETER_RADIUS = 130.000
_ATTACHMENTS_CODE = 0
_BETA_FILTER = Y
_WL_UNIT = A
_WL1 = 2.10187
_WL2 = 2.10583
_WLRATIO = 0.500
_ANODE = Mn

; Data for Point: Poudre Cu, Direction: Direction 12
_DRIVE = 2THETA
_STEPTIME = 60.00
_STEPSIZE = 0.0220
_STEPMODE = S
_START = 137.894
_THETA = 76.000
_2THETA = 137.894
_KHI = 35.264
_PHI = 90.000
_X = -94.693
_Y = -392.395
_Z = -42.780
_VARDIVERGENCE = Unkn
_VARANTISCATTER = 9999
_DETECTOR = 0
; Detector type : Unknown
_DETECTORSLIT = out
_AUX1 = 0
_AUX2 = 0
_AUX3 = 0
_TEMP_RATE = -1
_TEMP_DELAY = -1
_KV = 20.00
_MA = 1.00
_RANGE_WL = 2.10187
_3DPLANE = 0
_V4_COUNTERS_MASK = 4096
_V4_DRIVES_MASK = 0
_V4_ENCODERS_MASK = 0
_COUNTS = 1
; PSD
      298
      306
      317
      331
      334
      316
      336
      325
      332
      325
      347
      338
      312
      327
      322
      344
      339
      324
      351
      326
      308
      353
      329
      367
      343
      332
      352
      336
      326
      366
      351
      330
      399
      353
      309
      325
      312
      350
      356
      344
      361
      342
      352
      340
      351
      282
      335
      329
      318
      312
      313
      383
      388
      348
      338
      363
      341
      356
      367
      339
      339
      383
      349
      362
      365
      406
      364
      349
      381
      368
      375
      369
      369
      337
      358
      385
      377
      372
      412
      412
      426
      443
      393
      422
      416
      423
      409
      505
      442
      443
      505
      446
      487
      519
      593
      614
      661
      783
      870
     1047
     1180
     1165
     1104
     1250
     1137
     1256
     1135
     1042
     1006
      998
      967
      823
      734
      721
      561
      591
      566
      542
      544
      440
      470
      503
      417
      445
      457
      408
      413
      381
      400
      430
      409
      422
      436
      367
      430
      406
      371
      395
      424
      381
      382
      412
      373
      402
      360
      398
      375
      362
      355
      366
      394
      383
      394
      355
      394
      413
      409
      392
      408
      416
      430
      391
      386
      397
      379
      407
      397
      398
      445
      430
      428
      397
      388
      427
      423
      402
      398
      369
      426
      387
      428
      368
      400
      414
      403
      369
      423
      429
      406
      366
      402
      428
      411
      389
      400
      385
      405
      404
      422
      451
      421
      403
      408
      411
      401
      455
      443
      434
      408
      386
      431
      396
      397
      410
      364
      410
      449
      445
      406
      421
      446
      402
      438
      437
      421
      453
      404
      415
      357
      386
      390
      461
      429
      439
      419
      405
      401
      415
      421
      374
      440
      385
      439
      416
      383
      388
      387
      433
      428
      417
      400
      430
      374
      398
      367
      402
      453