File: examples/example6/copper7.uxd
; (content of file: C:\Users\usmial\AppData\Local\Microsoft\Windows\INetCache\Content.Outlook\85Y1ATVD\Poudre Cu et etalon inco 01-06-21.stx, Point: Poudre Cu)
_FILEVERSION = 2
_SAMPLE = Poudre Cu et etalon inco 01-06-21
_+SAMPLE = "Poudre Cu et etalon inco 01-06-21, Poudre Cu"
_SITE =
_USER =
_GONIOMETER_CODE = 9999
; Goniometer: StressDiff, stage: Unknown
_GONIOMETER_RADIUS = 130.000
_ATTACHMENTS_CODE = 0
_BETA_FILTER = Y
_WL_UNIT = A
_WL1 = 2.10187
_WL2 = 2.10583
_WLRATIO = 0.500
_ANODE = Mn

; Data for Point: Poudre Cu, Direction: Direction 7
_DRIVE = 2THETA
_STEPTIME = 60.00
_STEPSIZE = 0.0220
_STEPMODE = S
_START = 137.894
_THETA = 76.000
_2THETA = 137.894
_KHI = 0.000
_PHI = 90.000
_X = -94.693
_Y = -392.395
_Z = -42.780
_VARDIVERGENCE = Unkn
_VARANTISCATTER = 9999
_DETECTOR = 0
; Detector type : Unknown
_DETECTORSLIT = out
_AUX1 = 0
_AUX2 = 0
_AUX3 = 0
_TEMP_RATE = -1
_TEMP_DELAY = -1
_KV = 20.00
_MA = 1.00
_RANGE_WL = 2.10187
_3DPLANE = 0
_V4_COUNTERS_MASK = 4096
_V4_DRIVES_MASK = 0
_V4_ENCODERS_MASK = 0
_COUNTS = 1
; PSD
      312
      322
      299
      324
      314
      344
      353
      356
      321
      385
      308
      309
      318
      337
      356
      328
      330
      333
      335
      324
      366
      321
      312
      382
      354
      302
      356
      316
      352
      342
      373
      327
      331
      365
      273
      344
      384
      360
      348
      342
      340
      347
      354
      313
      355
      323
      318
      331
      341
      333
      295
      387
      348
      340
      377
      362
      331
      389
      329
      389
      385
      359
      353
      341
      361
      354
      384
      343
      373
      346
      362
      368
      352
      367
      348
      364
      407
      414
      355
      402
      430
      402
      361
      381
      413
      428
      413
      384
      431
      461
      515
      478
      489
      474
      588
      651
      699
      779
      868
     1094
     1219
     1211
     1168
     1250
     1075
     1156
      980
     1050
     1066
      980
      950
      776
      749
      710
      580
      569
      584
      548
      488
      470
      460
      501
      426
      431
      424
      380
      416
      409
      398
      434
      376
      423
      405
      365
      419
      390
      370
      396
      369
      405
      367
      387
      391
      389
      376
      414
      373
      372
      384
      384
      384
      359
      393
      358
      364
      383
      388
      414
      409
      413
      419
      420
      389
      436
      433
      422
      404
      433
      404
      393
      413
      405
      382
      399
      416
      404
      398
      392
      398
      367
      413
      436
      401
      409
      421
      398
      416
      422
      393
      403
      392
      386
      419
      440
      377
      413
      426
      401
      391
      406
      364
      397
      410
      399
      395
      401
      386
      413
      428
      380
      436
      404
      442
      415
      400
      429
      399
      426
      435
      396
      415
      417
      406
      411
      431
      385
      387
      411
      400
      437
      389
      396
      410
      413
      492
      364
      412
      444
      399
      411
      405
      421
      419
      406
      402
      376
      412
      420
      406
      404
      388
      414
      442
      373
      389
      416
      447