File: examples/example6/copper11.uxd
; (content of file: C:\Users\usmial\AppData\Local\Microsoft\Windows\INetCache\Content.Outlook\85Y1ATVD\Poudre Cu et etalon inco 01-06-21.stx, Point: Poudre Cu)
_FILEVERSION = 2
_SAMPLE = Poudre Cu et etalon inco 01-06-21
_+SAMPLE = "Poudre Cu et etalon inco 01-06-21, Poudre Cu"
_SITE =
_USER =
_GONIOMETER_CODE = 9999
; Goniometer: StressDiff, stage: Unknown
_GONIOMETER_RADIUS = 130.000
_ATTACHMENTS_CODE = 0
_BETA_FILTER = Y
_WL_UNIT = A
_WL1 = 2.10187
_WL2 = 2.10583
_WLRATIO = 0.500
_ANODE = Mn

; Data for Point: Poudre Cu, Direction: Direction 11
_DRIVE = 2THETA
_STEPTIME = 60.00
_STEPSIZE = 0.0220
_STEPMODE = S
_START = 137.894
_THETA = 76.000
_2THETA = 137.894
_KHI = 31.091
_PHI = 90.000
_X = -94.693
_Y = -392.395
_Z = -42.780
_VARDIVERGENCE = Unkn
_VARANTISCATTER = 9999
_DETECTOR = 0
; Detector type : Unknown
_DETECTORSLIT = out
_AUX1 = 0
_AUX2 = 0
_AUX3 = 0
_TEMP_RATE = -1
_TEMP_DELAY = -1
_KV = 20.00
_MA = 1.00
_RANGE_WL = 2.10187
_3DPLANE = 0
_V4_COUNTERS_MASK = 4096
_V4_DRIVES_MASK = 0
_V4_ENCODERS_MASK = 0
_COUNTS = 1
; PSD
      333
      331
      313
      331
      317
      290
      307
      334
      329
      347
      331
      409
      334
      337
      330
      371
      329
      342
      336
      346
      334
      315
      324
      352
      293
      335
      333
      339
      292
      315
      328
      349
      358
      338
      319
      338
      334
      329
      305
      344
      330
      332
      316
      326
      382
      326
      344
      321
      326
      321
      312
      363
      374
      360
      371
      374
      375
      354
      339
      349
      356
      367
      353
      363
      374
      387
      365
      359
      345
      360
      371
      432
      321
      357
      387
      372
      367
      401
      397
      350
      360
      368
      413
      403
      449
      421
      384
      442
      465
      464
      494
      482
      483
      548
      587
      640
      668
      827
      885
     1084
     1156
     1172
     1136
     1272
     1122
     1265
     1133
     1104
     1078
     1008
      940
      797
      716
      694
      605
      583
      598
      512
      471
      474
      417
      427
      429
      454
      420
      432
      414
      419
      432
      457
      418
      422
      432
      372
      392
      381
      375
      428
      415
      364
      364
      358
      362
      403
      377
      390
      392
      415
      402
      418
      372
      409
      386
      379
      370
      381
      389
      414
      374
      409
      422
      418
      388
      401
      414
      403
      390
      404
      442
      386
      436
      403
      364
      392
      455
      406
      425
      361
      398
      391
      395
      388
      418
      416
      414
      408
      381
      409
      387
      386
      384
      365
      390
      410
      426
      410
      381
      357
      384
      398
      380
      424
      363
      411
      420
      405
      464
      405
      405
      412
      441
      374
      437
      413
      425
      418
      371
      426
      428
      394
      397
      409
      399
      392
      411
      387
      401
      458
      398
      400
      373
      393
      406
      352
      418
      366
      363
      410
      408
      384
      378
      392
      416
      458
      431
      407
      443
      441
      405
      384
      389
      443
      355
      409
      394
      388
      430