File: examples/example6/copper10.uxd
; (content of file: C:\Users\usmial\AppData\Local\Microsoft\Windows\INetCache\Content.Outlook\85Y1ATVD\Poudre Cu et etalon inco 01-06-21.stx, Point: Poudre Cu)
_FILEVERSION = 2
_SAMPLE = Poudre Cu et etalon inco 01-06-21
_+SAMPLE = "Poudre Cu et etalon inco 01-06-21, Poudre Cu"
_SITE =
_USER =
_GONIOMETER_CODE = 9999
; Goniometer: StressDiff, stage: Unknown
_GONIOMETER_RADIUS = 130.000
_ATTACHMENTS_CODE = 0
_BETA_FILTER = Y
_WL_UNIT = A
_WL1 = 2.10187
_WL2 = 2.10583
_WLRATIO = 0.500
_ANODE = Mn

; Data for Point: Poudre Cu, Direction: Direction 10
_DRIVE = 2THETA
_STEPTIME = 60.00
_STEPSIZE = 0.0220
_STEPMODE = S
_START = 137.894
_THETA = 76.000
_2THETA = 137.894
_KHI = 26.565
_PHI = 90.000
_X = -94.693
_Y = -392.395
_Z = -42.780
_VARDIVERGENCE = Unkn
_VARANTISCATTER = 9999
_DETECTOR = 0
; Detector type : Unknown
_DETECTORSLIT = out
_AUX1 = 0
_AUX2 = 0
_AUX3 = 0
_TEMP_RATE = -1
_TEMP_DELAY = -1
_KV = 20.00
_MA = 1.00
_RANGE_WL = 2.10187
_3DPLANE = 0
_V4_COUNTERS_MASK = 4096
_V4_DRIVES_MASK = 0
_V4_ENCODERS_MASK = 0
_COUNTS = 1
; PSD
      350
      327
      371
      327
      293
      304
      307
      327
      366
      329
      310
      345
      333
      322
      289
      351
      347
      340
      350
      353
      325
      327
      365
      348
      331
      326
      344
      349
      333
      357
      368
      355
      326
      392
      319
      311
      329
      336
      355
      327
      344
      345
      380
      326
      324
      340
      325
      312
      356
      351
      312
      368
      339
      333
      367
      356
      355
      324
      358
      364
      364
      365
      351
      370
      399
      366
      348
      351
      377
      366
      320
      334
      371
      408
      358
      358
      368
      394
      407
      382
      419
      423
      414
      411
      423
      440
      440
      445
      446
      466
      498
      475
      482
      502
      603
      607
      625
      779
      852
     1085
     1154
     1161
     1096
     1295
     1129
     1273
     1176
     1095
     1096
      967
      941
      843
      779
      709
      639
      648
      566
      456
      471
      460
      402
      445
      399
      433
      433
      425
      402
      422
      395
      426
      444
      456
      440
      381
      405
      381
      379
      419
      437
      405
      390
      391
      382
      386
      418
      416
      366
      395
      375
      394
      378
      378
      388
      374
      390
      407
      387
      412
      400
      417
      383
      386
      404
      395
      402
      393
      419
      402
      425
      365
      427
      405
      394
      428
      394
      420
      374
      389
      372
      364
      395
      387
      426
      438
      410
      390
      383
      455
      416
      449
      416
      427
      441
      400
      399
      425
      377
      440
      417
      376
      420
      371
      386
      401
      405
      442
      414
      398
      458
      443
      441
      401
      404
      436
      411
      410
      447
      413
      417
      416
      415
      376
      431
      417
      359
      375
      405
      386
      364
      414
      372
      411
      410
      433
      415
      394
      412
      370
      445
      403
      385
      382
      441
      410
      386
      408
      418
      436
      439
      412
      399
      416
      442
      378
      432
      399
      456