File: examples/example6/copper2.uxd
; (content of file: C:\Users\usmial\AppData\Local\Microsoft\Windows\INetCache\Content.Outlook\85Y1ATVD\Poudre Cu et etalon inco 01-06-21.stx, Point: Poudre Cu)
_FILEVERSION = 2
_SAMPLE = Poudre Cu et etalon inco 01-06-21
_+SAMPLE = "Poudre Cu et etalon inco 01-06-21, Poudre Cu"
_SITE =
_USER =
_GONIOMETER_CODE = 9999
; Goniometer: StressDiff, stage: Unknown
_GONIOMETER_RADIUS = 130.000
_ATTACHMENTS_CODE = 0
_BETA_FILTER = Y
_WL_UNIT = A
_WL1 = 2.10187
_WL2 = 2.10583
_WLRATIO = 0.500
_ANODE = Mn

; Data for Point: Poudre Cu, Direction: Direction 2
_DRIVE = 2THETA
_STEPTIME = 60.00
_STEPSIZE = 0.0220
_STEPMODE = S
_START = 137.894
_THETA = 76.000
_2THETA = 137.894
_KHI = -33.211
_PHI = 90.000
_X = -94.693
_Y = -392.395
_Z = -42.780
_VARDIVERGENCE = Unkn
_VARANTISCATTER = 9999
_DETECTOR = 0
; Detector type : Unknown
_DETECTORSLIT = out
_AUX1 = 0
_AUX2 = 0
_AUX3 = 0
_TEMP_RATE = -1
_TEMP_DELAY = -1
_KV = 20.00
_MA = 1.00
_RANGE_WL = 2.10187
_3DPLANE = 0
_V4_COUNTERS_MASK = 4096
_V4_DRIVES_MASK = 0
_V4_ENCODERS_MASK = 0
_COUNTS = 1
; PSD
      354
      312
      338
      351
      301
      326
      326
      295
      352
      326
      350
      340
      322
      335
      349
      356
      316
      342
      352
      357
      373
      372
      343
      347
      347
      310
      350
      341
      384
      321
      344
      349
      361
      322
      346
      378
      316
      332
      357
      345
      330
      310
      335
      346
      346
      320
      325
      297
      362
      319
      315
      326
      312
      345
      396
      361
      319
      361
      335
      332
      384
      352
      335
      352
      357
      383
      342
      404
      346
      405
      351
      391
      357
      418
      382
      358
      365
      385
      403
      392
      415
      417
      396
      390
      397
      450
      432
      458
      438
      447
      474
      468
      476
      484
      599
      633
      698
      813
      907
     1027
     1127
     1085
     1179
     1216
     1197
     1392
     1111
     1132
     1063
      983
      924
      744
      786
      669
      571
      608
      562
      513
      539
      498
      454
      485
      463
      442
      401
      408
      426
      415
      421
      440
      459
      406
      381
      384
      380
      424
      393
      428
      364
      386
      381
      353
      365
      354
      396
      421
      388
      368
      398
      394
      361
      379
      383
      393
      421
      391
      413
      421
      415
      391
      441
      453
      406
      363
      419
      330
      421
      403
      411
      436
      388
      426
      389
      373
      409
      440
      403
      444
      425
      388
      392
      437
      428
      397
      398
      401
      443
      412
      408
      393
      411
      403
      371
      382
      412
      415
      406
      369
      427
      433
      429
      398
      423
      441
      396
      434
      434
      391
      417
      440
      460
      416
      404
      417
      409
      420
      425
      412
      430
      406
      410
      448
      356
      426
      396
      409
      416
      436
      402
      397
      383
      419
      391
      407
      477
      386
      423
      429
      414
      367
      410
      413
      451
      439
      382
      427
      421
      421
      412
      433
      428
      421
      413
      421
      452
      404
      466