File: examples/example6/copper5.uxd
; (content of file: C:\Users\usmial\AppData\Local\Microsoft\Windows\INetCache\Content.Outlook\85Y1ATVD\Poudre Cu et etalon inco 01-06-21.stx, Point: Poudre Cu)
_FILEVERSION = 2
_SAMPLE = Poudre Cu et etalon inco 01-06-21
_+SAMPLE = "Poudre Cu et etalon inco 01-06-21, Poudre Cu"
_SITE =
_USER =
_GONIOMETER_CODE = 9999
; Goniometer: StressDiff, stage: Unknown
_GONIOMETER_RADIUS = 130.000
_ATTACHMENTS_CODE = 0
_BETA_FILTER = Y
_WL_UNIT = A
_WL1 = 2.10187
_WL2 = 2.10583
_WLRATIO = 0.500
_ANODE = Mn

; Data for Point: Poudre Cu, Direction: Direction 5
_DRIVE = 2THETA
_STEPTIME = 60.00
_STEPSIZE = 0.0220
_STEPMODE = S
_START = 137.894
_THETA = 76.000
_2THETA = 137.894
_KHI = -18.435
_PHI = 90.000
_X = -94.693
_Y = -392.395
_Z = -42.780
_VARDIVERGENCE = Unkn
_VARANTISCATTER = 9999
_DETECTOR = 0
; Detector type : Unknown
_DETECTORSLIT = out
_AUX1 = 0
_AUX2 = 0
_AUX3 = 0
_TEMP_RATE = -1
_TEMP_DELAY = -1
_KV = 20.00
_MA = 1.00
_RANGE_WL = 2.10187
_3DPLANE = 0
_V4_COUNTERS_MASK = 4096
_V4_DRIVES_MASK = 0
_V4_ENCODERS_MASK = 0
_COUNTS = 1
; PSD
      347
      332
      316
      337
      334
      319
      304
      338
      307
      331
      336
      346
      347
      330
      338
      314
      325
      341
      341
      336
      332
      326
      344
      360
      301
      385
      381
      349
      341
      328
      319
      363
      333
      354
      367
      342
      343
      333
      358
      333
      317
      306
      335
      315
      329
      322
      355
      328
      351
      359
      326
      361
      378
      376
      314
      351
      329
      339
      359
      345
      358
      337
      354
      383
      388
      328
      352
      346
      378
      375
      330
      403
      379
      355
      397
      361
      372
      380
      396
      401
      408
      404
      460
      422
      450
      423
      387
      440
      473
      454
      486
      446
      485
      484
      569
      621
      697
      784
      863
     1032
     1251
     1202
     1179
     1285
     1130
     1246
     1075
     1100
     1086
      974
      929
      837
      771
      686
      630
      586
      528
      520
      457
      453
      436
      437
      464
      448
      452
      366
      463
      369
      426
      413
      393
      407
      375
      378
      424
      378
      389
      463
      403
      375
      380
      382
      375
      401
      423
      385
      367
      403
      376
      394
      367
      376
      377
      379
      416
      425
      427
      405
      386
      373
      405
      390
      388
      394
      415
      422
      433
      379
      387
      397
      402
      411
      396
      430
      408
      396
      394
      390
      382
      437
      408
      402
      424
      418
      426
      444
      423
      433
      411
      435
      438
      394
      429
      391
      382
      411
      392
      396
      406
      402
      401
      393
      379
      402
      412
      402
      413
      400
      427
      402
      434
      440
      439
      404
      401
      404
      456
      416
      383
      406
      420
      430
      406
      407
      408
      396
      449
      421
      393
      382
      389
      438
      446
      391
      385
      403
      413
      419
      400
      423
      403
      395
      419
      425
      400
      408
      410
      431
      435
      436
      395
      394
      393
      410
      387
      413
      463