File: examples/example6/copper1.uxd
; (content of file: C:\Users\usmial\AppData\Local\Microsoft\Windows\INetCache\Content.Outlook\85Y1ATVD\Poudre Cu et etalon inco 01-06-21.stx, Point: Poudre Cu)
_FILEVERSION = 2
_SAMPLE = Poudre Cu et etalon inco 01-06-21
_+SAMPLE = "Poudre Cu et etalon inco 01-06-21, Poudre Cu"
_SITE =
_USER =
_GONIOMETER_CODE = 9999
; Goniometer: StressDiff, stage: Unknown
_GONIOMETER_RADIUS = 130.000
_ATTACHMENTS_CODE = 0
_BETA_FILTER = Y
_ANODE = Mn
_WL_UNIT = A
_WL1 = 2.10187
_WL2 = 2.10583
_WLRATIO = 0.500

; Data for Point: Poudre Cu, Direction: Direction 1
_DRIVE = 2THETA
_STEPTIME = 60.00
_STEPSIZE = 0.0220
_STEPMODE = S
_START = 137.894
_THETA = 76.000
_2THETA = 137.894
_KHI = -37.267
_PHI = 90.000
_X = -94.693
_Y = -392.395
_Z = -42.780
_VARDIVERGENCE = Unkn
_VARANTISCATTER = 9999
_DETECTOR = 0
; Detector type : Unknown
_DETECTORSLIT = out
_AUX1 = 0
_AUX2 = 0
_AUX3 = 0
_TEMP_RATE = -1
_TEMP_DELAY = -1
_KV = 20.00
_MA = 1.00
_RANGE_WL = 2.10187
_3DPLANE = 0
_V4_COUNTERS_MASK = 4096
_V4_DRIVES_MASK = 0
_V4_ENCODERS_MASK = 0
_COUNTS = 1
; PSD
      364
      313
      327
      340
      313
      285
      289
      334
      322
      365
      295
      315
      293
      346
      309
      336
      320
      307
      336
      352
      328
      312
      350
      347
      331
      340
      367
      345
      318
      379
      355
      338
      345
      349
      327
      349
      353
      319
      331
      358
      370
      346
      305
      315
      313
      309
      318
      333
      304
      348
      298
      325
      328
      326
      350
      359
      341
      335
      352
      335
      374
      366
      380
      363
      382
      353
      346
      348
      343
      363
      380
      408
      371
      373
      358
      348
      405
      411
      345
      376
      410
      404
      399
      436
      419
      472
      406
      437
      465
      428
      481
      513
      516
      539
      583
      653
      718
      794
      925
     1023
     1202
     1069
     1083
     1226
     1189
     1277
     1121
     1055
      945
      934
      918
      739
      765
      646
      609
      607
      526
      502
      477
      477
      460
      486
      435
      456
      420
      461
      418
      409
      427
      393
      397
      432
      461
      402
      405
      382
      406
      414
      422
      381
      383
      398
      370
      378
      415
      363
      387
      396
      381
      396
      416
      442
      394
      333
      400
      420
      379
      427
      400
      394
      421
      402
      398
      404
      399
      412
      376
      412
      384
      348
      404
      395
      369
      395
      424
      422
      390
      397
      393
      399
      412
      387
      462
      403
      460
      435
      418
      474
      429
      408
      393
      367
      399
      417
      397
      436
      357
      406
      403
      406
      420
      402
      363
      418
      394
      414
      463
      413
      413
      366
      402
      438
      387
      392
      378
      388
      434
      406
      449
      409
      438
      429
      430
      424
      391
      402
      342
      397
      412
      419
      386
      402
      400
      400
      405
      408
      447
      414
      427
      400
      409
      403
      397
      423
      454
      415
      432
      397
      409
      470
      435
      476
      390
      435
      401
      370
      424