File: examples/example6/copper8.uxd
; (content of file: C:\Users\usmial\AppData\Local\Microsoft\Windows\INetCache\Content.Outlook\85Y1ATVD\Poudre Cu et etalon inco 01-06-21.stx, Point: Poudre Cu)
_FILEVERSION = 2
_SAMPLE = Poudre Cu et etalon inco 01-06-21
_+SAMPLE = "Poudre Cu et etalon inco 01-06-21, Poudre Cu"
_SITE =
_USER =
_GONIOMETER_CODE = 9999
; Goniometer: StressDiff, stage: Unknown
_GONIOMETER_RADIUS = 130.000
_ATTACHMENTS_CODE = 0
_BETA_FILTER = Y
_WL_UNIT = A
_WL1 = 2.10187
_WL2 = 2.10583
_WLRATIO = 0.500
_ANODE = Mn

; Data for Point: Poudre Cu, Direction: Direction 8
_DRIVE = 2THETA
_STEPTIME = 60.00
_STEPSIZE = 0.0220
_STEPMODE = S
_START = 137.894
_THETA = 76.000
_2THETA = 137.894
_KHI = 14.963
_PHI = 90.000
_X = -94.693
_Y = -392.395
_Z = -42.780
_VARDIVERGENCE = Unkn
_VARANTISCATTER = 9999
_DETECTOR = 0
; Detector type : Unknown
_DETECTORSLIT = out
_AUX1 = 0
_AUX2 = 0
_AUX3 = 0
_TEMP_RATE = -1
_TEMP_DELAY = -1
_KV = 20.00
_MA = 1.00
_RANGE_WL = 2.10187
_3DPLANE = 0
_V4_COUNTERS_MASK = 4096
_V4_DRIVES_MASK = 0
_V4_ENCODERS_MASK = 0
_COUNTS = 1
; PSD
      361
      309
      329
      338
      308
      341
      352
      327
      300
      361
      352
      319
      349
      314
      352
      342
      334
      307
      344
      369
      336
      345
      355
      365
      330
      304
      357
      299
      361
      363
      331
      345
      342
      363
      352
      316
      304
      327
      317
      332
      333
      349
      371
      284
      331
      332
      344
      325
      353
      353
      351
      345
      344
      341
      367
      356
      344
      340
      350
      397
      350
      363
      332
      365
      366
      360
      369
      374
      382
      358
      366
      377
      382
      362
      360
      365
      362
      385
      426
      395
      392
      401
      384
      389
      435
      422
      398
      441
      416
      443
      475
      446
      520
      509
      590
      637
      682
      774
      896
     1069
     1226
     1234
     1134
     1271
     1143
     1304
     1102
     1041
     1055
      983
      990
      796
      730
      642
      586
      559
      534
      520
      498
      476
      449
      456
      454
      440
      454
      422
      427
      388
      398
      413
      423
      394
      408
      430
      384
      394
      447
      401
      373
      423
      387
      414
      397
      406
      369
      415
      364
      398
      380
      387
      369
      389
      412
      373
      385
      379
      394
      400
      405
      391
      379
      413
      377
      365
      420
      390
      392
      406
      428
      369
      435
      419
      368
      366
      459
      422
      364
      416
      397
      392
      380
      380
      475
      409
      420
      385
      403
      457
      431
      396
      414
      369
      433
      430
      383
      405
      390
      421
      378
      422
      402
      365
      375
      427
      362
      433
      426
      369
      436
      426
      450
      465
      370
      441
      411
      362
      448
      422
      386
      364
      448
      391
      426
      444
      431
      381
      397
      429
      429
      408
      391
      386
      424
      382
      476
      395
      391
      415
      419
      414
      394
      421
      425
      415
      430
      418
      416
      425
      425
      453
      412
      463
      404
      400
      387
      373
      464